KL 1.1 1
2/14/2023 6:45 AM
Wavelength (nm)	10mm Absorbance
//WLCalib: Shift 	0.30333	
//WLCalib: 261S 	0.17000	
//WLCalib: 362S 	-0.17000	
//WLCalib: 484S 	-0.22000	
//WLCalib: 529S 	0.26000	
//WLCalib: 823S 	-0.40000	
//QSpecEnd: 
220.0	0.365
220.5	0.348
221.0	0.330
221.5	0.314
222.0	0.298
222.5	0.282
223.0	0.267
223.5	0.252
224.0	0.239
224.5	0.227
225.0	0.217
225.5	0.207
226.0	0.200
226.5	0.194
227.0	0.191
227.5	0.187
228.0	0.186
228.5	0.183
229.0	0.181
229.5	0.179
230.0	0.178
230.5	0.177
231.0	0.176
231.5	0.176
232.0	0.175
232.5	0.173
233.0	0.174
233.5	0.174
234.0	0.174
234.5	0.175
235.0	0.177
235.5	0.179
236.0	0.183
236.5	0.187
237.0	0.192
237.5	0.198
238.0	0.206
238.5	0.214
239.0	0.221
239.5	0.230
240.0	0.239
240.5	0.246
241.0	0.253
241.5	0.260
242.0	0.268
242.5	0.277
243.0	0.285
243.5	0.293
244.0	0.301
244.5	0.310
245.0	0.319
245.5	0.327
246.0	0.336
246.5	0.343
247.0	0.351
247.5	0.358
248.0	0.366
248.5	0.374
249.0	0.381
249.5	0.386
250.0	0.392
250.5	0.399
251.0	0.405
251.5	0.412
252.0	0.420
252.5	0.426
253.0	0.432
253.5	0.434
254.0	0.440
254.5	0.444
255.0	0.448
255.5	0.451
256.0	0.454
256.5	0.456
257.0	0.456
257.5	0.457
258.0	0.456
258.5	0.456
259.0	0.456
259.5	0.454
260.0	0.452
260.5	0.450
261.0	0.448
261.5	0.446
262.0	0.442
262.5	0.440
263.0	0.436
263.5	0.430
264.0	0.424
264.5	0.420
265.0	0.413
265.5	0.405
266.0	0.397
266.5	0.388
267.0	0.380
267.5	0.373
268.0	0.367
268.5	0.361
269.0	0.354
269.5	0.347
270.0	0.341
270.5	0.333
271.0	0.328
271.5	0.321
272.0	0.311
272.5	0.303
273.0	0.297
273.5	0.289
274.0	0.282
274.5	0.275
275.0	0.267
275.5	0.259
276.0	0.252
276.5	0.243
277.0	0.235
277.5	0.226
278.0	0.217
278.5	0.209
279.0	0.201
279.5	0.195
280.0	0.187
280.5	0.178
281.0	0.171
281.5	0.163
282.0	0.157
282.5	0.151
283.0	0.145
283.5	0.138
284.0	0.132
284.5	0.126
285.0	0.121
285.5	0.116
286.0	0.110
286.5	0.104
287.0	0.097
287.5	0.091
288.0	0.087
288.5	0.082
289.0	0.078
289.5	0.074
290.0	0.069
290.5	0.063
291.0	0.059
291.5	0.054
292.0	0.050
292.5	0.047
293.0	0.045
293.5	0.041
294.0	0.039
294.5	0.037
295.0	0.036
295.5	0.034
296.0	0.032
296.5	0.030
297.0	0.029
297.5	0.029
298.0	0.028
298.5	0.026
299.0	0.024
299.5	0.023
300.0	0.020
300.5	0.019
301.0	0.018
301.5	0.017
302.0	0.015
302.5	0.012
303.0	0.011
303.5	0.010
304.0	0.008
304.5	0.007
305.0	0.004
305.5	0.003
306.0	0.004
306.5	0.005
307.0	0.005
307.5	0.004
308.0	0.004
308.5	0.004
309.0	0.004
309.5	0.005
310.0	0.006
310.5	0.006
311.0	0.007
311.5	0.008
312.0	0.008
312.5	0.008
313.0	0.009
313.5	0.009
314.0	0.007
314.5	0.007
315.0	0.006
315.5	0.007
316.0	0.007
316.5	0.007
317.0	0.007
317.5	0.006
318.0	0.005
318.5	0.004
319.0	0.004
319.5	0.004
320.0	0.004
320.5	0.003
321.0	0.004
321.5	0.004
322.0	0.005
322.5	0.006
323.0	0.006
323.5	0.006
324.0	0.005
324.5	0.005
325.0	0.005
325.5	0.005
326.0	0.005
326.5	0.004
327.0	0.003
327.5	0.003
328.0	0.002
328.5	0.003
329.0	0.003
329.5	0.003
330.0	0.003
330.5	0.003
331.0	0.004
331.5	0.003
332.0	0.003
332.5	0.004
333.0	0.004
333.5	0.004
334.0	0.005
334.5	0.006
335.0	0.005
335.5	0.006
336.0	0.006
336.5	0.005
337.0	0.003
337.5	0.001
338.0	0.001
338.5	-0.002
339.0	-0.001
339.5	0.000
340.0	0.000
340.5	0.000
341.0	-0.001
341.5	-0.001
342.0	-0.001
342.5	0.000
343.0	0.000
343.5	0.001
344.0	0.002
344.5	0.001
345.0	0.002
345.5	0.002
346.0	0.003
346.5	0.002
347.0	0.003
347.5	0.002
348.0	0.002
348.5	0.003
349.0	0.003
349.5	0.002
350.0	0.002


KL 1.1 2
2/14/2023 6:45 AM
Wavelength (nm)	10mm Absorbance
//WLCalib: Shift 	0.30333	
//WLCalib: 261S 	0.17000	
//WLCalib: 362S 	-0.17000	
//WLCalib: 484S 	-0.22000	
//WLCalib: 529S 	0.26000	
//WLCalib: 823S 	-0.40000	
//QSpecEnd: 
220.0	0.314
220.5	0.300
221.0	0.286
221.5	0.275
222.0	0.261
222.5	0.246
223.0	0.233
223.5	0.220
224.0	0.207
224.5	0.194
225.0	0.182
225.5	0.176
226.0	0.170
226.5	0.166
227.0	0.163
227.5	0.160
228.0	0.158
228.5	0.157
229.0	0.155
229.5	0.153
230.0	0.154
230.5	0.154
231.0	0.153
231.5	0.154
232.0	0.154
232.5	0.156
233.0	0.158
233.5	0.159
234.0	0.160
234.5	0.162
235.0	0.166
235.5	0.168
236.0	0.173
236.5	0.177
237.0	0.184
237.5	0.190
238.0	0.197
238.5	0.205
239.0	0.213
239.5	0.221
240.0	0.230
240.5	0.238
241.0	0.246
241.5	0.253
242.0	0.261
242.5	0.270
243.0	0.279
243.5	0.287
244.0	0.295
244.5	0.304
245.0	0.312
245.5	0.320
246.0	0.329
246.5	0.337
247.0	0.346
247.5	0.353
248.0	0.360
248.5	0.368
249.0	0.375
249.5	0.381
250.0	0.387
250.5	0.393
251.0	0.400
251.5	0.408
252.0	0.414
252.5	0.422
253.0	0.428
253.5	0.433
254.0	0.439
254.5	0.444
255.0	0.448
255.5	0.452
256.0	0.455
256.5	0.456
257.0	0.456
257.5	0.456
258.0	0.455
258.5	0.456
259.0	0.455
259.5	0.454
260.0	0.452
260.5	0.451
261.0	0.449
261.5	0.446
262.0	0.442
262.5	0.439
263.0	0.435
263.5	0.431
264.0	0.426
264.5	0.422
265.0	0.415
265.5	0.408
266.0	0.399
266.5	0.391
267.0	0.382
267.5	0.374
268.0	0.368
268.5	0.361
269.0	0.354
269.5	0.347
270.0	0.341
270.5	0.332
271.0	0.325
271.5	0.317
272.0	0.308
272.5	0.300
273.0	0.294
273.5	0.287
274.0	0.278
274.5	0.273
275.0	0.267
275.5	0.259
276.0	0.251
276.5	0.242
277.0	0.233
277.5	0.224
278.0	0.217
278.5	0.209
279.0	0.202
279.5	0.195
280.0	0.188
280.5	0.180
281.0	0.172
281.5	0.166
282.0	0.158
282.5	0.151
283.0	0.144
283.5	0.137
284.0	0.132
284.5	0.127
285.0	0.122
285.5	0.116
286.0	0.109
286.5	0.103
287.0	0.097
287.5	0.091
288.0	0.086
288.5	0.081
289.0	0.077
289.5	0.073
290.0	0.068
290.5	0.064
291.0	0.060
291.5	0.054
292.0	0.051
292.5	0.048
293.0	0.044
293.5	0.041
294.0	0.038
294.5	0.037
295.0	0.035
295.5	0.033
296.0	0.031
296.5	0.029
297.0	0.027
297.5	0.027
298.0	0.027
298.5	0.025
299.0	0.024
299.5	0.022
300.0	0.019
300.5	0.018
301.0	0.017
301.5	0.016
302.0	0.014
302.5	0.012
303.0	0.011
303.5	0.009
304.0	0.007
304.5	0.004
305.0	0.002
305.5	0.001
306.0	0.000
306.5	0.002
307.0	0.001
307.5	0.001
308.0	0.001
308.5	0.001
309.0	0.001
309.5	0.002
310.0	0.003
310.5	0.002
311.0	0.003
311.5	0.004
312.0	0.006
312.5	0.006
313.0	0.007
313.5	0.006
314.0	0.005
314.5	0.005
315.0	0.005
315.5	0.006
316.0	0.006
316.5	0.005
317.0	0.005
317.5	0.004
318.0	0.003
318.5	0.002
319.0	0.003
319.5	0.002
320.0	0.002
320.5	0.001
321.0	0.002
321.5	0.002
322.0	0.003
322.5	0.004
323.0	0.004
323.5	0.004
324.0	0.004
324.5	0.005
325.0	0.005
325.5	0.005
326.0	0.006
326.5	0.005
327.0	0.005
327.5	0.004
328.0	0.004
328.5	0.004
329.0	0.004
329.5	0.003
330.0	0.003
330.5	0.001
331.0	0.000
331.5	-0.001
332.0	-0.002
332.5	-0.002
333.0	-0.002
333.5	-0.001
334.0	-0.001
334.5	0.000
335.0	0.000
335.5	0.001
336.0	0.001
336.5	-0.001
337.0	-0.001
337.5	-0.001
338.0	-0.001
338.5	-0.002
339.0	0.000
339.5	0.000
340.0	0.000
340.5	-0.002
341.0	-0.002
341.5	-0.002
342.0	-0.003
342.5	-0.003
343.0	-0.002
343.5	-0.003
344.0	-0.002
344.5	-0.003
345.0	-0.002
345.5	-0.003
346.0	-0.002
346.5	-0.003
347.0	-0.003
347.5	-0.003
348.0	-0.004
348.5	-0.004
349.0	-0.005
349.5	-0.005
350.0	-0.006


KL 1.1 3
2/14/2023 6:46 AM
Wavelength (nm)	10mm Absorbance
//WLCalib: Shift 	0.30333	
//WLCalib: 261S 	0.17000	
//WLCalib: 362S 	-0.17000	
//WLCalib: 484S 	-0.22000	
//WLCalib: 529S 	0.26000	
//WLCalib: 823S 	-0.40000	
//QSpecEnd: 
220.0	0.292
220.5	0.280
221.0	0.263
221.5	0.252
222.0	0.236
222.5	0.223
223.0	0.211
223.5	0.200
224.0	0.189
224.5	0.180
225.0	0.172
225.5	0.168
226.0	0.161
226.5	0.157
227.0	0.155
227.5	0.154
228.0	0.151
228.5	0.149
229.0	0.148
229.5	0.147
230.0	0.147
230.5	0.146
231.0	0.146
231.5	0.147
232.0	0.148
232.5	0.148
233.0	0.149
233.5	0.151
234.0	0.152
234.5	0.153
235.0	0.156
235.5	0.159
236.0	0.164
236.5	0.168
237.0	0.174
237.5	0.181
238.0	0.190
238.5	0.198
239.0	0.205
239.5	0.214
240.0	0.223
240.5	0.231
241.0	0.237
241.5	0.244
242.0	0.252
242.5	0.261
243.0	0.270
243.5	0.280
244.0	0.289
244.5	0.298
245.0	0.307
245.5	0.315
246.0	0.323
246.5	0.332
247.0	0.340
247.5	0.347
248.0	0.354
248.5	0.363
249.0	0.371
249.5	0.377
250.0	0.383
250.5	0.390
251.0	0.396
251.5	0.402
252.0	0.409
252.5	0.414
253.0	0.421
253.5	0.425
254.0	0.429
254.5	0.432
255.0	0.436
255.5	0.439
256.0	0.444
256.5	0.446
257.0	0.447
257.5	0.449
258.0	0.449
258.5	0.449
259.0	0.449
259.5	0.448
260.0	0.446
260.5	0.444
261.0	0.443
261.5	0.442
262.0	0.439
262.5	0.436
263.0	0.433
263.5	0.428
264.0	0.421
264.5	0.416
265.0	0.408
265.5	0.399
266.0	0.391
266.5	0.384
267.0	0.375
267.5	0.368
268.0	0.361
268.5	0.354
269.0	0.347
269.5	0.340
270.0	0.335
270.5	0.328
271.0	0.321
271.5	0.313
272.0	0.304
272.5	0.295
273.0	0.289
273.5	0.282
274.0	0.273
274.5	0.266
275.0	0.260
275.5	0.251
276.0	0.243
276.5	0.233
277.0	0.226
277.5	0.216
278.0	0.207
278.5	0.200
279.0	0.191
279.5	0.186
280.0	0.179
280.5	0.171
281.0	0.164
281.5	0.157
282.0	0.150
282.5	0.144
283.0	0.138
283.5	0.131
284.0	0.126
284.5	0.120
285.0	0.114
285.5	0.109
286.0	0.102
286.5	0.097
287.0	0.090
287.5	0.084
288.0	0.079
288.5	0.074
289.0	0.070
289.5	0.066
290.0	0.060
290.5	0.055
291.0	0.050
291.5	0.047
292.0	0.043
292.5	0.041
293.0	0.038
293.5	0.035
294.0	0.033
294.5	0.030
295.0	0.028
295.5	0.026
296.0	0.024
296.5	0.021
297.0	0.020
297.5	0.019
298.0	0.018
298.5	0.017
299.0	0.015
299.5	0.012
300.0	0.009
300.5	0.009
301.0	0.008
301.5	0.006
302.0	0.005
302.5	0.004
303.0	0.003
303.5	0.002
304.0	0.001
304.5	0.000
305.0	-0.003
305.5	-0.004
306.0	-0.004
306.5	-0.002
307.0	-0.001
307.5	0.000
308.0	-0.001
308.5	-0.001
309.0	-0.001
309.5	0.000
310.0	0.000
310.5	0.001
311.0	0.001
311.5	0.002
312.0	0.003
312.5	0.005
313.0	0.006
313.5	0.005
314.0	0.004
314.5	0.003
315.0	0.002
315.5	0.003
316.0	0.004
316.5	0.004
317.0	0.004
317.5	0.003
318.0	0.002
318.5	0.002
319.0	0.002
319.5	0.002
320.0	0.003
320.5	0.002
321.0	0.003
321.5	0.003
322.0	0.004
322.5	0.005
323.0	0.005
323.5	0.006
324.0	0.005
324.5	0.005
325.0	0.006
325.5	0.006
326.0	0.006
326.5	0.005
327.0	0.005
327.5	0.003
328.0	0.002
328.5	0.002
329.0	0.001
329.5	0.000
330.0	0.000
330.5	0.000
331.0	-0.001
331.5	-0.002
332.0	-0.003
332.5	-0.003
333.0	-0.003
333.5	-0.003
334.0	-0.002
334.5	-0.001
335.0	-0.001
335.5	0.000
336.0	0.001
336.5	0.001
337.0	0.002
337.5	0.000
338.0	0.000
338.5	-0.002
339.0	0.000
339.5	0.000
340.0	0.000
340.5	-0.001
341.0	-0.001
341.5	-0.001
342.0	0.000
342.5	0.000
343.0	0.000
343.5	0.000
344.0	0.000
344.5	-0.001
345.0	-0.001
345.5	-0.001
346.0	-0.001
346.5	-0.001
347.0	0.000
347.5	0.000
348.0	-0.001
348.5	0.000
349.0	-0.001
349.5	-0.003
350.0	-0.004


KL 1.2 1
2/14/2023 6:47 AM
Wavelength (nm)	10mm Absorbance
//WLCalib: Shift 	0.30333	
//WLCalib: 261S 	0.17000	
//WLCalib: 362S 	-0.17000	
//WLCalib: 484S 	-0.22000	
//WLCalib: 529S 	0.26000	
//WLCalib: 823S 	-0.40000	
//QSpecEnd: 
220.0	0.307
220.5	0.296
221.0	0.282
221.5	0.270
222.0	0.258
222.5	0.246
223.0	0.235
223.5	0.225
224.0	0.216
224.5	0.209
225.0	0.202
225.5	0.198
226.0	0.194
226.5	0.191
227.0	0.189
227.5	0.189
228.0	0.187
228.5	0.186
229.0	0.186
229.5	0.186
230.0	0.185
230.5	0.186
231.0	0.186
231.5	0.186
232.0	0.187
232.5	0.188
233.0	0.189
233.5	0.191
234.0	0.194
234.5	0.197
235.0	0.202
235.5	0.207
236.0	0.213
236.5	0.220
237.0	0.227
237.5	0.237
238.0	0.248
238.5	0.259
239.0	0.271
239.5	0.284
240.0	0.295
240.5	0.305
241.0	0.315
241.5	0.324
242.0	0.334
242.5	0.344
243.0	0.356
243.5	0.367
244.0	0.378
244.5	0.390
245.0	0.401
245.5	0.410
246.0	0.420
246.5	0.430
247.0	0.440
247.5	0.449
248.0	0.458
248.5	0.467
249.0	0.477
249.5	0.485
250.0	0.491
250.5	0.499
251.0	0.506
251.5	0.514
252.0	0.521
252.5	0.529
253.0	0.536
253.5	0.541
254.0	0.548
254.5	0.553
255.0	0.558
255.5	0.564
256.0	0.571
256.5	0.575
257.0	0.577
257.5	0.581
258.0	0.583
258.5	0.584
259.0	0.586
259.5	0.586
260.0	0.585
260.5	0.585
261.0	0.584
261.5	0.582
262.0	0.580
262.5	0.578
263.0	0.575
263.5	0.571
264.0	0.565
264.5	0.561
265.0	0.553
265.5	0.544
266.0	0.535
266.5	0.526
267.0	0.517
267.5	0.509
268.0	0.501
268.5	0.494
269.0	0.485
269.5	0.477
270.0	0.470
270.5	0.460
271.0	0.451
271.5	0.441
272.0	0.430
272.5	0.420
273.0	0.411
273.5	0.400
274.0	0.389
274.5	0.380
275.0	0.371
275.5	0.359
276.0	0.347
276.5	0.332
277.0	0.320
277.5	0.307
278.0	0.296
278.5	0.285
279.0	0.273
279.5	0.263
280.0	0.253
280.5	0.242
281.0	0.231
281.5	0.221
282.0	0.212
282.5	0.203
283.0	0.194
283.5	0.186
284.0	0.179
284.5	0.171
285.0	0.164
285.5	0.156
286.0	0.148
286.5	0.140
287.0	0.132
287.5	0.124
288.0	0.118
288.5	0.113
289.0	0.108
289.5	0.103
290.0	0.095
290.5	0.089
291.0	0.082
291.5	0.076
292.0	0.072
292.5	0.068
293.0	0.063
293.5	0.060
294.0	0.056
294.5	0.052
295.0	0.050
295.5	0.046
296.0	0.042
296.5	0.040
297.0	0.037
297.5	0.035
298.0	0.034
298.5	0.032
299.0	0.029
299.5	0.026
300.0	0.024
300.5	0.022
301.0	0.021
301.5	0.019
302.0	0.017
302.5	0.015
303.0	0.014
303.5	0.013
304.0	0.010
304.5	0.009
305.0	0.007
305.5	0.006
306.0	0.006
306.5	0.007
307.0	0.007
307.5	0.007
308.0	0.007
308.5	0.007
309.0	0.008
309.5	0.009
310.0	0.009
310.5	0.009
311.0	0.009
311.5	0.010
312.0	0.012
312.5	0.012
313.0	0.013
313.5	0.011
314.0	0.010
314.5	0.010
315.0	0.009
315.5	0.009
316.0	0.008
316.5	0.009
317.0	0.008
317.5	0.008
318.0	0.007
318.5	0.006
319.0	0.006
319.5	0.004
320.0	0.004
320.5	0.003
321.0	0.005
321.5	0.005
322.0	0.006
322.5	0.007
323.0	0.006
323.5	0.007
324.0	0.006
324.5	0.005
325.0	0.005
325.5	0.004
326.0	0.005
326.5	0.003
327.0	0.003
327.5	0.002
328.0	0.002
328.5	0.002
329.0	0.001
329.5	0.000
330.0	-0.001
330.5	-0.001
331.0	-0.001
331.5	-0.002
332.0	-0.003
332.5	-0.002
333.0	-0.002
333.5	-0.002
334.0	-0.002
334.5	0.000
335.0	-0.001
335.5	-0.001
336.0	-0.001
336.5	-0.001
337.0	-0.001
337.5	-0.002
338.0	-0.001
338.5	-0.001
339.0	-0.001
339.5	0.001
340.0	0.000
340.5	-0.001
341.0	-0.001
341.5	0.000
342.0	0.000
342.5	0.001
343.0	0.002
343.5	0.002
344.0	0.003
344.5	0.001
345.0	0.001
345.5	0.001
346.0	0.002
346.5	0.001
347.0	0.001
347.5	0.001
348.0	0.002
348.5	0.002
349.0	0.001
349.5	-0.001
350.0	-0.001


KL 1.2 2
2/14/2023 6:47 AM
Wavelength (nm)	10mm Absorbance
//WLCalib: Shift 	0.30333	
//WLCalib: 261S 	0.17000	
//WLCalib: 362S 	-0.17000	
//WLCalib: 484S 	-0.22000	
//WLCalib: 529S 	0.26000	
//WLCalib: 823S 	-0.40000	
//QSpecEnd: 
220.0	0.310
220.5	0.298
221.0	0.286
221.5	0.277
222.0	0.264
222.5	0.253
223.0	0.242
223.5	0.232
224.0	0.220
224.5	0.208
225.0	0.200
225.5	0.193
226.0	0.184
226.5	0.181
227.0	0.178
227.5	0.176
228.0	0.175
228.5	0.174
229.0	0.172
229.5	0.172
230.0	0.172
230.5	0.172
231.0	0.173
231.5	0.174
232.0	0.177
232.5	0.179
233.0	0.182
233.5	0.187
234.0	0.191
234.5	0.197
235.0	0.204
235.5	0.209
236.0	0.218
236.5	0.224
237.0	0.232
237.5	0.242
238.0	0.252
238.5	0.262
239.0	0.272
239.5	0.282
240.0	0.292
240.5	0.301
241.0	0.310
241.5	0.319
242.0	0.328
242.5	0.337
243.0	0.348
243.5	0.357
244.0	0.367
244.5	0.379
245.0	0.388
245.5	0.398
246.0	0.409
246.5	0.421
247.0	0.431
247.5	0.441
248.0	0.452
248.5	0.461
249.0	0.471
249.5	0.478
250.0	0.486
250.5	0.495
251.0	0.504
251.5	0.515
252.0	0.525
252.5	0.535
253.0	0.544
253.5	0.550
254.0	0.556
254.5	0.561
255.0	0.568
255.5	0.572
256.0	0.577
256.5	0.580
257.0	0.581
257.5	0.582
258.0	0.583
258.5	0.584
259.0	0.585
259.5	0.584
260.0	0.582
260.5	0.581
261.0	0.580
261.5	0.578
262.0	0.575
262.5	0.572
263.0	0.569
263.5	0.565
264.0	0.558
264.5	0.554
265.0	0.548
265.5	0.540
266.0	0.530
266.5	0.520
267.0	0.511
267.5	0.503
268.0	0.493
268.5	0.484
269.0	0.475
269.5	0.467
270.0	0.459
270.5	0.450
271.0	0.442
271.5	0.433
272.0	0.423
272.5	0.413
273.0	0.404
273.5	0.395
274.0	0.383
274.5	0.373
275.0	0.363
275.5	0.351
276.0	0.340
276.5	0.327
277.0	0.315
277.5	0.301
278.0	0.289
278.5	0.276
279.0	0.264
279.5	0.254
280.0	0.243
280.5	0.232
281.0	0.222
281.5	0.213
282.0	0.204
282.5	0.195
283.0	0.186
283.5	0.177
284.0	0.169
284.5	0.161
285.0	0.155
285.5	0.148
286.0	0.140
286.5	0.134
287.0	0.126
287.5	0.118
288.0	0.111
288.5	0.104
289.0	0.098
289.5	0.092
290.0	0.086
290.5	0.079
291.0	0.072
291.5	0.067
292.0	0.062
292.5	0.056
293.0	0.051
293.5	0.046
294.0	0.042
294.5	0.038
295.0	0.035
295.5	0.032
296.0	0.030
296.5	0.027
297.0	0.025
297.5	0.024
298.0	0.023
298.5	0.022
299.0	0.020
299.5	0.018
300.0	0.016
300.5	0.015
301.0	0.014
301.5	0.013
302.0	0.013
302.5	0.013
303.0	0.012
303.5	0.011
304.0	0.009
304.5	0.008
305.0	0.007
305.5	0.005
306.0	0.004
306.5	0.005
307.0	0.005
307.5	0.005
308.0	0.005
308.5	0.004
309.0	0.003
309.5	0.004
310.0	0.004
310.5	0.003
311.0	0.004
311.5	0.004
312.0	0.003
312.5	0.004
313.0	0.005
313.5	0.005
314.0	0.004
314.5	0.004
315.0	0.004
315.5	0.005
316.0	0.006
316.5	0.007
317.0	0.007
317.5	0.007
318.0	0.006
318.5	0.006
319.0	0.007
319.5	0.007
320.0	0.007
320.5	0.006
321.0	0.007
321.5	0.007
322.0	0.007
322.5	0.007
323.0	0.007
323.5	0.006
324.0	0.006
324.5	0.005
325.0	0.005
325.5	0.005
326.0	0.005
326.5	0.003
327.0	0.003
327.5	0.003
328.0	0.003
328.5	0.004
329.0	0.004
329.5	0.003
330.0	0.003
330.5	0.003
331.0	0.003
331.5	0.001
332.0	0.001
332.5	0.001
333.0	0.001
333.5	0.002
334.0	0.002
334.5	0.004
335.0	0.003
335.5	0.003
336.0	0.001
336.5	0.001
337.0	0.001
337.5	0.000
338.0	0.000
338.5	-0.001
339.0	0.001
339.5	0.001
340.0	0.000
340.5	-0.001
341.0	-0.001
341.5	-0.002
342.0	-0.003
342.5	-0.003
343.0	-0.002
343.5	-0.002
344.0	-0.002
344.5	-0.002
345.0	-0.002
345.5	-0.003
346.0	-0.002
346.5	-0.003
347.0	-0.002
347.5	-0.003
348.0	-0.003
348.5	-0.003
349.0	-0.003
349.5	-0.004
350.0	-0.004


KL 1.2 3
2/14/2023 6:47 AM
Wavelength (nm)	10mm Absorbance
//WLCalib: Shift 	0.30333	
//WLCalib: 261S 	0.17000	
//WLCalib: 362S 	-0.17000	
//WLCalib: 484S 	-0.22000	
//WLCalib: 529S 	0.26000	
//WLCalib: 823S 	-0.40000	
//QSpecEnd: 
220.0	0.317
220.5	0.305
221.0	0.291
221.5	0.279
222.0	0.266
222.5	0.253
223.0	0.242
223.5	0.232
224.0	0.219
224.5	0.208
225.0	0.198
225.5	0.190
226.0	0.183
226.5	0.179
227.0	0.175
227.5	0.173
228.0	0.172
228.5	0.171
229.0	0.171
229.5	0.171
230.0	0.171
230.5	0.172
231.0	0.173
231.5	0.175
232.0	0.177
232.5	0.179
233.0	0.184
233.5	0.189
234.0	0.193
234.5	0.199
235.0	0.205
235.5	0.211
236.0	0.219
236.5	0.225
237.0	0.233
237.5	0.242
238.0	0.252
238.5	0.262
239.0	0.272
239.5	0.281
240.0	0.292
240.5	0.301
241.0	0.309
241.5	0.319
242.0	0.329
242.5	0.339
243.0	0.350
243.5	0.359
244.0	0.370
244.5	0.380
245.0	0.390
245.5	0.400
246.0	0.411
246.5	0.421
247.0	0.432
247.5	0.442
248.0	0.452
248.5	0.462
249.0	0.470
249.5	0.478
250.0	0.486
250.5	0.495
251.0	0.504
251.5	0.514
252.0	0.525
252.5	0.534
253.0	0.544
253.5	0.552
254.0	0.560
254.5	0.567
255.0	0.573
255.5	0.577
256.0	0.582
256.5	0.585
257.0	0.584
257.5	0.586
258.0	0.586
258.5	0.586
259.0	0.587
259.5	0.585
260.0	0.584
260.5	0.583
261.0	0.581
261.5	0.579
262.0	0.575
262.5	0.572
263.0	0.570
263.5	0.565
264.0	0.560
264.5	0.557
265.0	0.551
265.5	0.543
266.0	0.536
266.5	0.528
267.0	0.520
267.5	0.510
268.0	0.498
268.5	0.489
269.0	0.480
269.5	0.471
270.0	0.463
270.5	0.453
271.0	0.444
271.5	0.435
272.0	0.424
272.5	0.413
273.0	0.404
273.5	0.393
274.0	0.382
274.5	0.373
275.0	0.363
275.5	0.353
276.0	0.343
276.5	0.330
277.0	0.319
277.5	0.304
278.0	0.292
278.5	0.280
279.0	0.267
279.5	0.256
280.0	0.245
280.5	0.234
281.0	0.224
281.5	0.214
282.0	0.206
282.5	0.196
283.0	0.187
283.5	0.177
284.0	0.168
284.5	0.161
285.0	0.156
285.5	0.149
286.0	0.141
286.5	0.135
287.0	0.127
287.5	0.119
288.0	0.112
288.5	0.105
289.0	0.100
289.5	0.094
290.0	0.087
290.5	0.080
291.0	0.074
291.5	0.069
292.0	0.063
292.5	0.057
293.0	0.051
293.5	0.046
294.0	0.040
294.5	0.037
295.0	0.035
295.5	0.032
296.0	0.030
296.5	0.027
297.0	0.024
297.5	0.022
298.0	0.021
298.5	0.019
299.0	0.018
299.5	0.017
300.0	0.015
300.5	0.015
301.0	0.014
301.5	0.015
302.0	0.014
302.5	0.014
303.0	0.012
303.5	0.011
304.0	0.009
304.5	0.009
305.0	0.007
305.5	0.006
306.0	0.006
306.5	0.006
307.0	0.005
307.5	0.005
308.0	0.004
308.5	0.004
309.0	0.004
309.5	0.004
310.0	0.004
310.5	0.003
311.0	0.004
311.5	0.004
312.0	0.004
312.5	0.003
313.0	0.004
313.5	0.004
314.0	0.004
314.5	0.004
315.0	0.004
315.5	0.004
316.0	0.004
316.5	0.004
317.0	0.004
317.5	0.003
318.0	0.003
318.5	0.003
319.0	0.004
319.5	0.004
320.0	0.006
320.5	0.005
321.0	0.005
321.5	0.005
322.0	0.004
322.5	0.005
323.0	0.006
323.5	0.006
324.0	0.005
324.5	0.005
325.0	0.005
325.5	0.004
326.0	0.004
326.5	0.003
327.0	0.003
327.5	0.001
328.0	0.001
328.5	0.002
329.0	0.002
329.5	0.003
330.0	0.003
330.5	0.001
331.0	0.002
331.5	0.001
332.0	0.001
332.5	0.002
333.0	0.002
333.5	0.002
334.0	0.001
334.5	0.004
335.0	0.004
335.5	0.004
336.0	0.003
336.5	0.002
337.0	0.002
